LabVIEW Measurement	
Writer_Version	2
Reader_Version	2
Separator	Tab
Decimal_Separator	.
Multi_Headings	No
X_Columns	No
Time_Pref	Relative
Operator	seth303
Date	2024/12/02
Time	16:44:40.7702150344848632813
***End_of_Header***	
	
Channels	9									
Samples	1	1	1	1	1	1	1	1	1	
Date	2024/12/02	2024/12/02	2024/12/02	2024/12/02	2024/12/02	2024/12/02	2024/12/02	2024/12/02	2024/12/02	
Time	16:44:40.7702150344848632813	16:44:40.7702150344848632813	16:44:40.7702150344848632813	16:44:40.7702150344848632813	16:44:40.7711933999996536868	16:44:40.7711933999996536868	16:44:40.7711933999996536868	16:44:40.7711933999996536868	16:44:40.7702150344848632813	
Y_Unit_Label	s	psi	deg F	SLPM	psi	Deg F	Thrust	lbf	SLPM	
X_Dimension	Time	Time	Time	Time	Time	Time	Time	Time	Time	
X0	0.0000000000000000E+0	0.0000000000000000E+0	0.0000000000000000E+0	0.0000000000000000E+0	0.0000000000000000E+0	0.0000000000000000E+0	0.0000000000000000E+0	0.0000000000000000E+0	0.0000000000000000E+0	
Delta_X	1.000000	10.000000	10.000000	10.000000	0.100000	0.100000	0.100000	0.100000	1.000000	
***End_of_Header***										
X_Value	Time	MFC Pressure (Resampled)	MFC Temperature (Resampled)	Mass Flow (Resampled)	Pressure	Temperature	Thrust Input	Force	Master_Setpoint	Comment
	22.679034	12.400000	47.150000	0.000000	12.264217	70.186977	0.059192	0.139966	0.000000
	22.778768	12.410000	47.150000	0.000000	12.267974	70.399592	0.059331	0.134297	0.000000
	22.879498	12.400000	47.150000	0.000000	12.266321	70.356271	0.059057	0.126431	0.000000
	22.982964	12.400000	47.150000	0.000000	12.271051	70.174313	0.059855	0.129232	0.000000
	23.079702	12.400000	47.150000	0.000000	12.263335	70.462239	0.059783	0.126665	0.000000
	23.179206	12.400000	47.150000	0.000000	12.259450	70.359604	0.059777	0.117424	0.000000
	23.278939	12.400000	47.150000	0.000000	12.270087	70.353974	0.059715	0.111050	0.000000
	23.379652	12.400000	47.150000	0.000000	12.265356	70.387596	0.059861	0.110161	0.000000
	23.479385	12.410000	47.150000	0.000000	12.270968	70.308950	0.060480	0.094630	0.000000
	23.579119	12.400000	47.150000	0.000000	12.265117	70.421288	0.060843	0.098723	0.000000
	23.678852	12.400000	47.150000	0.000000	12.263087	70.353307	0.060788	0.086026	0.000000
	23.778586	12.400000	47.150000	0.000000	12.262371	70.407590	0.060940	0.083426	0.000000
	23.879116	12.400000	47.150000	0.000000	12.262738	70.272293	0.061130	0.087384	0.000000
	23.978843	12.400000	47.150000	0.000000	12.267175	70.144020	0.060843	0.081447	0.000000
	24.078576	12.400000	47.150000	0.000000	12.264640	70.310283	0.060923	0.083208	0.000000
	24.179306	12.400000	47.150000	0.000000	12.262573	70.343310	0.060811	0.079350	0.000000
	24.282301	12.400000	47.150000	0.000000	12.264015	70.210306	0.059872	0.083560	0.000000
	24.379039	12.400000	47.150000	0.000000	12.260139	70.269328	0.059985	0.080457	0.000000
	24.482924	12.410000	47.150000	0.000000	12.259652	70.262295	0.059722	0.066369	0.000000
	24.578667	12.400000	47.150000	0.000000	12.269931	70.389964	0.059878	0.064238	0.000000
	24.678399	12.400000	47.150000	0.000000	12.263244	70.295322	0.060934	0.069253	0.000000
	24.779128	12.400000	47.150000	0.000000	12.264410	70.242668	0.060148	0.069371	0.000000
	24.879182	12.400000	47.150000	0.000000	12.261315	70.115359	0.094395	0.065865	0.000000
	24.979381	12.400000	47.150000	0.000000	12.252607	70.277625	0.142607	0.081833	0.000000
	25.077699	12.410000	47.150000	0.000000	12.265375	70.331980	0.176142	0.064440	0.000000
	25.178683	12.400000	47.150000	0.000000	12.266403	70.273994	0.127193	0.059576	0.000000
	25.279594	12.400000	47.150000	0.000000	12.265843	70.191345	0.118766	0.063920	0.000000
	25.379329	12.400000	47.150000	0.000000	12.268874	70.349975	0.111611	0.066821	0.000000
	25.479178	12.400000	47.150000	0.000000	12.270886	70.458609	0.108754	0.064306	0.000000
	25.578109	12.400000	47.150000	0.000000	12.261471	70.084030	0.109725	0.057949	0.000000
	25.677946	12.400000	47.150000	0.000000	12.268691	70.382632	0.110694	0.059324	0.000000
	25.780436	12.400000	47.150000	0.000000	12.262738	70.461644	0.107367	0.067845	25.000000
	25.879170	12.400000	47.150000	0.000000	12.262619	70.272959	0.107078	0.066939	25.000000
	25.977906	12.400000	47.150000	0.000000	12.263684	70.280957	0.105798	0.068952	25.000000
	26.077639	12.400000	47.150000	0.000000	12.265522	70.222672	0.103534	0.056607	25.000000
	26.183254	12.400000	47.150000	0.000000	12.264686	70.374635	0.106387	0.074436	25.000000
	26.279127	12.400000	47.150000	0.000000	12.262729	70.275327	0.107082	0.063433	25.000000
	26.379051	12.400000	47.150000	0.000000	12.264961	70.379967	0.108585	0.066067	25.000000
	26.478097	12.400000	47.150000	0.000000	12.268250	70.201343	0.108440	0.055735	25.000000
	26.577823	12.400000	47.150000	0.000000	12.265044	70.289324	0.107691	0.068817	25.000000
	26.678551	12.400000	47.150000	0.000000	12.260938	70.277993	0.107226	0.068197	25.000000
	26.778765	12.400000	47.150000	0.000000	12.283387	70.156018	0.106664	0.064373	25.000000
	26.879497	12.400000	47.150000	0.000000	12.291048	70.315984	0.108101	0.064926	25.000000
	26.979232	12.400000	47.150000	0.000000	12.279612	70.092397	0.108714	0.060297	25.000000
	27.080927	12.400000	47.150000	0.000000	12.266725	70.269995	0.108079	0.050988	25.000000
	27.178664	12.410000	47.150000	0.000000	12.265999	70.161351	0.106879	0.057311	25.000000
	27.279396	12.400000	47.150000	0.000000	12.263124	70.273030	0.107328	0.049932	25.000000
	27.379128	12.410000	47.150000	0.100000	12.260424	70.210675	0.106303	0.109893	25.000000
	27.477629	12.530000	47.150000	3.200000	12.383042	70.205044	0.106588	0.041881	25.000000
	27.578891	12.840000	47.150000	15.900000	13.130257	70.358639	0.106134	0.107880	25.000000
	27.677637	13.720000	47.150000	37.000000	14.773846	70.502963	0.106392	0.228055	25.000000
	27.780363	15.090000	47.150000	57.000000	14.903935	70.880132	0.106106	-0.150885	500.000000
	27.878101	16.060000	47.150000	71.900000	20.259052	71.188613	0.106710	0.132720	500.000000
	27.977833	22.880000	47.150000	121.600000	37.620006	71.808398	0.104472	2.730922	500.000000
	28.078671	42.930000	47.150000	250.000000	67.805888	71.438428	0.104085	1.659784	500.000000
	28.178421	68.850000	47.150000	388.000000	92.140592	72.151734	0.103956	2.970399	500.000000
	28.277176	92.660000	47.150000	503.600000	94.869921	72.680689	0.104017	4.949059	500.000000
	28.378293	110.150000	47.140000	582.500000	104.864194	72.713678	0.103382	4.934920	500.000000
	28.479022	118.230000	47.140000	723.400000	115.233664	71.297203	0.102962	3.175593	500.000000
	28.578759	108.850000	47.140000	688.500000	101.425385	72.880100	0.103635	0.058469	500.000000
	28.679971	94.490000	47.130000	617.800000	87.122039	73.327376	0.101937	2.420616	500.000000
	28.778860	79.620000	47.120000	517.700000	58.756962	73.280124	0.102668	3.645171	500.000000
	28.879105	71.490000	47.100000	417.600000	58.814151	74.179054	0.102668	1.946660	500.000000
	28.977922	63.150000	47.090000	331.300000	54.173225	74.728163	0.103809	5.063815	500.000000
	29.078635	69.370000	47.060000	370.000000	66.571923	75.069601	0.104322	3.292363	500.000000
	29.178371	76.600000	47.040000	454.100000	88.136519	74.006752	0.103657	0.292578	500.000000
	29.278101	79.520000	47.010000	534.200000	89.181467	74.053689	0.102959	-0.133928	500.000000
	29.377678	83.350000	46.990000	567.500000	67.424567	76.562181	0.102615	5.767827	500.000000
	29.479408	85.900000	46.960000	582.600000	66.878537	77.801249	0.103194	5.330828	500.000000
	29.577711	79.690000	46.930000	569.800000	86.172752	77.666450	0.102269	-1.260365	500.000000
	29.677762	72.910000	46.900000	530.700000	77.166981	78.354290	0.101915	0.138339	500.000000
	29.779489	69.070000	46.870000	476.900000	52.522160	81.266925	0.101174	5.078021	500.000000
	29.879227	71.330000	46.830000	462.100000	65.680442	81.135020	0.100720	1.074795	500.000000
	29.983780	70.250000	46.800000	441.800000	73.012474	80.918914	0.100264	0.881761	500.000000
	30.077528	70.070000	46.770000	446.800000	57.671577	85.550538	0.099906	3.776332	500.000000
	30.181203	72.980000	46.740000	471.500000	80.771234	83.285166	0.100776	0.105767	500.000000
	30.279306	69.210000	46.700000	485.800000	61.252329	87.043596	0.100684	4.280545	500.000000
	30.378043	74.700000	46.660000	493.400000	84.515135	85.721814	0.100298	0.687117	500.000000
	30.477776	75.930000	46.640000	516.500000	70.691938	88.950028	0.100841	2.840111	500.000000
	30.578312	75.500000	46.600000	518.900000	64.536477	87.272222	0.100382	3.197934	500.000000
	30.679056	80.730000	46.570000	545.000000	87.337992	89.789914	0.100610	0.533179	500.000000
	30.777330	75.070000	46.530000	533.900000	70.341297	90.919250	0.100793	3.463207	500.000000
	30.879170	74.680000	46.500000	522.400000	58.543315	89.444118	0.100067	4.990906	500.000000
	30.977902	77.340000	46.470000	517.000000	75.877281	91.715717	0.100463	2.009171	500.000000
	31.078632	72.040000	46.430000	480.600000	80.174029	93.543436	0.100000	-0.044514	500.000000
	31.178363	69.810000	46.400000	483.600000	65.055535	93.344540	0.099590	2.156064	500.000000
	31.280359	73.010000	46.370000	469.600000	60.499882	93.466383	0.100740	5.036744	500.000000
	31.378013	73.450000	46.330000	462.800000	59.446289	94.463228	0.101114	4.623961	500.000000
	31.483125	73.800000	46.290000	463.200000	72.178388	95.652316	0.100340	1.826737	500.000000
	31.577580	75.800000	46.260000	491.300000	79.133527	97.012920	0.100183	1.299915	500.000000
	31.679307	77.580000	46.230000	499.500000	81.229348	97.657709	0.100061	0.997575	500.000000
	31.779042	78.280000	46.200000	498.100000	76.484302	98.483597	0.100498	2.208293	500.000000
	31.878501	82.400000	46.160000	507.900000	69.269907	99.020863	0.100221	3.320491	500.000000
	31.978234	84.300000	46.130000	496.400000	68.853271	99.884256	0.100617	4.792256	500.000000
	32.079393	85.080000	46.100000	501.900000	68.635545	100.432956	0.101069	5.265416	500.000000
	32.178942	85.420000	46.070000	516.600000	71.854533	101.113735	0.099944	5.649348	500.000000
	32.279672	83.030000	46.040000	507.800000	77.997735	101.802739	0.099782	3.921179	500.000000
	32.379406	81.630000	46.010000	497.200000	81.902304	102.422378	0.100418	2.004525	500.000000
	32.478221	79.670000	45.980000	505.200000	92.789621	103.256135	0.100095	-0.014424	500.000000
	32.577946	82.290000	45.950000	517.700000	90.195726	103.397390	0.100532	0.261113	500.000000
	32.677666	84.410000	45.920000	516.200000	80.149674	103.621487	0.101006	2.107944	500.000000
	32.782980	81.160000	45.900000	490.900000	71.291356	103.735784	0.100689	4.398271	500.000000
	32.878906	85.900000	45.870000	481.000000	77.976621	103.379041	0.099474	4.560678	500.000000
	32.979983	83.050000	45.840000	490.700000	91.742343	103.858300	0.100402	0.717206	500.000000
	33.077721	85.330000	45.810000	495.200000	88.598985	103.689628	0.100818	1.066140	500.000000
	33.177629	88.450000	45.790000	507.400000	73.233057	103.221109	0.100922	3.760583	500.000000
	33.279358	88.780000	45.760000	485.700000	84.837953	102.819635	0.100582	3.573587	500.000000
	33.382319	86.470000	45.730000	480.600000	92.853126	102.933392	0.101665	0.629285	500.000000
	33.478750	85.580000	45.710000	480.800000	80.126060	102.528946	0.101063	3.014528	500.000000
	33.578450	91.590000	45.680000	488.400000	81.242776	101.869992	0.101103	4.574130	500.000000
	33.678186	88.810000	45.650000	501.900000	98.638845	101.653573	0.101371	0.870557	500.000000
	33.781478	88.470000	45.620000	511.300000	80.847633	101.115047	0.101389	3.686683	500.000000
	33.878326	94.310000	45.600000	502.700000	95.657347	100.615748	0.101530	2.507329	500.000000
	33.978744	89.780000	45.570000	503.400000	84.730903	100.191805	0.102554	3.020801	500.000000
	34.082014	95.140000	45.540000	510.500000	92.504959	99.312786	0.102942	4.250204	500.000000
	34.179745	92.710000	45.520000	510.500000	96.550306	99.105284	0.102914	1.519701	500.000000
	34.277965	98.750000	45.490000	524.500000	85.671670	98.424839	0.102940	4.624598	500.000000
	34.377697	93.010000	45.470000	513.000000	100.530297	97.773730	0.103262	0.631851	500.000000
	34.479856	94.610000	45.440000	517.700000	83.697161	97.141469	0.103268	4.191987	500.000000
	34.579073	93.890000	45.410000	490.600000	99.022561	96.506080	0.102808	0.920421	500.000000
	34.678931	95.180000	45.390000	493.700000	86.194144	95.765168	0.102311	4.388593	500.000000
	34.778771	92.640000	45.360000	487.800000	99.443582	95.129623	0.102600	0.954822	500.000000
	34.878503	95.590000	45.330000	496.900000	87.476899	94.557424	0.103031	4.072349	500.000000
	34.978236	91.890000	45.300000	488.400000	97.885672	93.824033	0.101983	1.177056	500.000000
	35.080131	96.340000	45.280000	493.800000	90.352452	93.153234	0.101446	3.955193	500.000000
	35.177882	91.090000	45.250000	479.800000	90.028262	92.611051	0.101672	2.434470	500.000000
	35.279910	98.980000	45.220000	497.100000	100.544923	91.864758	0.101355	2.299099	500.000000
	35.381184	92.420000	45.190000	477.100000	85.954947	91.392097	0.100945	3.948971	500.000000
	35.478925	97.980000	45.160000	475.600000	97.861788	90.749831	0.099990	1.381362	500.000000
	35.579098	102.420000	45.130000	478.000000	101.126282	90.024877	0.099524	3.435197	500.000000
	35.678832	96.580000	45.110000	484.400000	89.998916	89.515759	0.099215	3.812678	500.000000
	35.777918	101.980000	45.080000	487.500000	103.822192	89.077207	0.098928	1.676070	500.000000
	35.880046	105.230000	45.050000	488.600000	103.289249	88.120114	0.098679	3.650941	500.000000
	35.983006	101.540000	45.020000	510.000000	92.719821	87.716911	0.099507	3.959571	500.000000
	36.079739	106.510000	45.000000	515.000000	108.493147	87.177145	0.099096	1.551032	500.000000
	36.179472	108.410000	44.970000	523.300000	104.435118	86.417777	0.098576	4.107252	500.000000
	36.279206	101.550000	44.940000	527.500000	92.820263	85.999302	0.099174	4.037747	500.000000
	36.381027	109.370000	44.910000	542.900000	109.160969	85.316849	0.099335	1.647071	500.000000
	36.478592	106.280000	44.880000	525.200000	101.114617	84.614302	0.099847	4.201715	500.000000
	36.582922	103.200000	44.850000	527.600000	90.054275	84.289698	0.099768	3.757866	500.000000
	36.680184	107.970000	44.830000	527.300000	106.585403	83.351080	0.099762	2.060461	500.000000
	36.779260	103.720000	44.800000	504.600000	92.716396	82.975706	0.099648	4.698263	500.000000
	36.877997	97.730000	44.760000	521.200000	94.406686	82.560743	0.099464	2.261579	500.000000
	36.977729	103.840000	44.740000	527.700000	99.393871	81.902235	0.099396	3.287281	500.000000
	37.078462	95.530000	44.710000	512.800000	85.223928	81.422455	0.099676	3.789834	500.000000
	37.181113	100.700000	44.680000	500.400000	103.657042	80.835819	0.099049	1.170700	500.000000
	37.279206	94.840000	44.650000	500.000000	85.475534	80.480437	0.099507	4.163457	500.000000
	37.377936	91.680000	44.620000	485.200000	90.067975	80.195287	0.100163	2.043387	500.000000
	37.477798	96.030000	44.590000	483.700000	93.175928	79.560879	0.099853	3.275239	500.000000
	37.577551	90.150000	44.560000	476.300000	80.939219	79.382711	0.099807	3.639452	500.000000
	37.679252	95.610000	44.530000	478.000000	99.070884	78.928183	0.099264	1.524145	500.000000
	37.783390	88.880000	44.500000	486.500000	81.931752	78.461967	0.099509	4.106866	500.000000
	37.880805	94.060000	44.470000	493.600000	96.140763	78.410487	0.099582	1.298724	500.000000
	37.977733	95.460000	44.440000	510.000000	86.641886	78.077895	0.099141	4.391998	500.000000
	38.077465	89.410000	44.410000	506.400000	84.476426	77.758229	0.099111	2.826777	500.000000
	38.178815	96.160000	44.380000	498.600000	96.426536	77.547354	0.100219	3.102180	500.000000
	38.277321	90.710000	44.350000	511.600000	81.251388	77.056526	0.099576	3.421796	500.000000
	38.379048	96.470000	44.320000	523.000000	99.107543	77.091435	0.098705	1.510358	500.000000
	38.482807	89.080000	44.290000	511.100000	79.175477	76.785191	0.097322	3.920407	500.000000
	38.583584	95.890000	44.270000	524.800000	99.158365	76.836643	0.097726	1.148594	500.000000
	38.677331	91.950000	44.240000	511.100000	79.630812	76.627732	0.097664	3.994424	500.000000
	38.778063	88.450000	44.210000	494.700000	91.212826	76.403447	0.098493	1.464721	500.000000
	38.878911	94.570000	44.180000	500.500000	84.896109	76.417768	0.098619	4.438273	500.000000
	38.977804	86.160000	44.160000	498.400000	83.323965	76.729384	0.098200	2.544665	500.000000
	39.079173	93.640000	44.130000	500.200000	92.215484	76.514115	0.098177	2.862737	500.000000
	39.177877	86.550000	44.110000	500.100000	78.122843	76.928686	0.097272	3.583046	500.000000
	39.278608	91.370000	44.080000	482.500000	94.430663	76.948912	0.098008	1.023605	500.000000
	39.377343	90.760000	44.070000	471.200000	81.087108	77.121326	0.098582	4.402414	500.000000
	39.479078	86.740000	44.040000	480.800000	83.105882	77.198744	0.098685	2.527657	500.000000
	39.578806	93.180000	44.010000	489.300000	93.043919	77.474670	0.098036	2.897607	500.000000
	39.678539	86.930000	43.990000	496.800000	77.824380	77.796078	0.097708	3.632424	500.000000
	39.777443	91.860000	43.970000	506.000000	94.504999	77.800726	0.097286	1.044101	0.000000
	39.877275	89.390000	43.950000	475.100000	75.834220	78.149299	0.097210	1.970309	0.000000
	39.979988	68.430000	43.920000	307.100000	62.281731	78.407536	0.097348	1.130177	0.000000
	40.077726	57.690000	43.900000	183.800000	46.918722	78.586090	0.097107	1.894296	0.000000
	40.177466	44.480000	43.880000	132.100000	34.719080	79.276921	0.097075	1.079541	0.000000
	40.279194	39.150000	43.850000	105.100000	27.508686	79.022782	0.097370	1.530234	0.000000
	40.381564	29.550000	43.830000	78.900000	26.921865	79.924758	0.097567	0.723781	0.000000
	40.478977	23.640000	43.800000	58.800000	17.172013	80.049747	0.098205	0.862556	0.000000
	40.578706	19.840000	43.770000	42.000000	13.188410	80.456932	0.098396	0.662176	0.000000
	40.678445	15.550000	43.730000	30.000000	12.728753	81.274356	0.097388	0.637973	0.000000
	40.778179	13.620000	43.710000	18.700000	12.261305	82.056684	0.098011	0.666419	0.000000
	40.876946	12.420000	43.670000	10.000000	12.266559	82.699539	0.097991	0.690287	0.000000
	40.978649	12.410000	43.640000	4.600000	12.268002	83.687465	0.098410	0.679502	0.000000
	41.083951	12.410000	43.600000	2.000000	12.275047	84.246753	0.098590	0.679586	0.000000
	41.179041	12.410000	43.580000	0.900000	12.265678	85.080416	0.099187	0.678563	0.000000
	41.279772	12.410000	43.550000	0.400000	12.274165	85.992099	0.098792	0.678496	0.000000
	41.377520	12.410000	43.520000	0.200000	12.264245	86.588385	0.098562	0.678127	0.000000
	41.478251	12.410000	43.500000	0.000000	12.267441	87.091609	0.098527	0.681615	0.000000
	41.577170	12.410000	43.480000	0.000000	12.266091	87.915804	0.098775	0.675460	0.000000
	41.680956	12.410000	43.470000	0.000000	12.267267	88.439512	0.099053	0.675946	0.000000
	41.777584	12.400000	43.450000	-0.100000	12.264061	88.913565	0.099210	0.690924	0.000000
	41.877316	12.410000	43.450000	-0.100000	12.264649	89.147907	0.098599	0.679183	0.000000
	41.978047	12.410000	43.440000	-0.100000	12.264135	89.616504	0.098904	0.673061	0.000000
	42.079171	12.410000	43.430000	-0.100000	12.261186	89.702951	0.098944	0.686429	0.000000
	42.178918	12.410000	43.420000	-0.100000	12.266385	90.227487	0.098770	0.667006	0.000000
	42.283504	12.410000	43.420000	-0.100000	12.261370	90.366679	0.098955	0.674185	0.000000
	42.378357	12.400000	43.420000	-0.100000	12.261866	90.693181	0.099356	0.683913	0.000000
	42.478659	12.410000	43.410000	-0.100000	12.273945	90.924666	0.098865	0.676953	0.000000
	42.579403	12.410000	43.410000	-0.100000	12.261820	91.167333	0.099063	0.687855	0.000000
	42.679134	12.400000	43.410000	-0.100000	12.270087	91.309094	0.099523	0.680542	0.000000
	42.778865	12.410000	43.410000	-0.100000	12.265127	91.328214	0.099110	0.684785	0.000000
	42.878632	12.410000	43.420000	-0.100000	12.265825	91.292975	0.099562	0.693457	0.000000
	42.981965	12.410000	43.420000	-0.100000	12.270078	91.598517	0.099754	0.678361	0.000000
	43.077238	12.400000	43.420000	0.000000	12.263014	91.566580	0.099025	0.692064	0.000000
	43.178966	12.400000	43.420000	0.000000	12.261939	91.805504	0.099338	0.691830	0.000000
	43.277707	12.410000	43.430000	0.000000	12.258862	91.803892	0.099221	0.689683	0.000000
	43.379077	12.400000	43.440000	0.000000	12.261425	91.666417	0.099658	0.703772	0.000000
	43.481341	12.400000	43.440000	0.000000	12.265439	91.872078	0.099176	0.703386	0.000000
	43.578200	12.410000	43.440000	0.000000	12.261664	91.701060	0.098989	0.707025	0.000000
	43.678175	12.400000	43.450000	0.000000	12.269113	91.993061	0.099136	0.720376	0.000000
	43.778906	12.410000	43.450000	0.000000	12.266973	91.879693	0.098883	0.703067	0.000000
	43.878639	12.400000	43.460000	0.000000	12.272236	91.956446	0.098350	0.702681	0.000000
	43.978384	12.410000	43.460000	0.000000	12.265926	91.956151	0.097973	0.717777	0.000000
	44.078105	12.410000	43.470000	0.000000	12.270087	91.674033	0.098459	0.720225	0.000000
	44.177662	12.400000	43.470000	0.000000	12.270656	91.727063	0.098425	0.706589	0.000000
	44.283760	12.400000	43.490000	0.000000	12.270252	91.672055	0.097927	0.727488	0.000000
	44.378652	12.410000	43.490000	0.000000	12.263969	91.779502	0.097933	0.724217	0.000000
	44.477386	12.400000	43.500000	0.000000	12.270408	91.766978	0.098052	0.724670	0.000000
	44.578123	12.410000	43.500000	0.000000	12.270528	91.637117	0.098227	0.715529	0.000000
	44.677962	12.410000	43.510000	0.000000	12.263418	91.631843	0.098136	0.730658	0.000000
	44.782176	12.410000	43.510000	0.000000	0.000000	91.447253	0.097871	1.199817	0.000000
	44.877618	51.860000	43.530000	6.900000	0.000000	91.381324	0.097604	1.609920	0.000000
	44.981650	49.760000	43.530000	3.900000	0.000000	91.527025	0.097172	1.356136	0.000000
	45.079381	48.110000	43.540000	1.300000	0.000000	91.325942	0.097598	1.326163	0.000000
	45.177120	46.690000	43.550000	0.100000	0.000000	91.167403	0.098159	1.294380	0.000000
	45.277968	45.620000	43.560000	-0.600000	0.000000	90.930306	0.097245	1.253421	0.000000
	45.376246	44.930000	43.570000	-1.100000	38.192076	90.540526	0.096968	1.254461	0.000000
	45.481957	44.500000	43.580000	-1.500000	37.828804	90.325486	0.098108	1.266185	0.000000
	45.583705	44.330000	43.580000	-1.800000	37.539045	89.770623	0.097592	1.266890	0.000000
	45.677452	44.280000	43.590000	-2.000000	37.224082	89.055859	0.096957	1.320880	0.000000
	45.779667	44.230000	43.590000	-2.000000	37.056147	88.561738	0.096733	1.294447	0.000000
	45.877406	44.170000	43.600000	-2.100000	36.979291	87.887472	0.097285	1.302229	0.000000
	45.977139	44.120000	43.610000	-1.600000	36.911792	87.284987	0.097063	1.297533	0.000000
	46.082052	44.060000	43.610000	-1.000000	36.914657	86.423206	0.096442	1.295705	0.000000
	46.182285	44.010000	43.620000	-0.800000	36.825390	85.546119	0.096418	1.300099	0.000000
	46.278403	43.960000	43.630000	-0.700000	36.852981	84.807636	0.145778	1.299831	0.000000
	46.379134	43.920000	43.630000	-0.600000	36.816511	83.887808	0.115951	1.310246	0.000000
	46.478752	43.870000	43.640000	-0.600000	27.815879	83.110570	0.109118	1.197636	0.000000
	46.578471	31.740000	43.640000	12.600000	12.333857	82.230996	0.106951	0.723882	0.000000
	46.679656	12.650000	43.650000	17.500000	12.264796	81.383492	0.105403	0.766568	0.000000
	46.780667	12.420000	43.650000	8.200000	12.271529	80.567737	0.107373	0.775541	0.000000
	46.877402	12.410000	43.660000	4.000000	12.264970	79.568614	0.116097	0.792649	0.000000
	46.977135	12.420000	43.670000	1.200000	12.267680	78.823469	0.115632	0.784866	0.000000
	47.077975	12.420000	43.670000	-0.500000	12.264447	78.097289	0.112220	0.778392	0.000000
	47.178715	12.420000	43.670000	-1.400000	12.262371	77.265899	0.111105	0.797563	0.000000
	47.278436	12.420000	43.670000	-1.800000	12.266082	76.541796	0.109899	0.792364	0.000000
	47.382569	12.420000	43.680000	-2.000000	12.265926	76.262047	0.107234	0.801387	0.000000
	47.482721	12.410000	43.680000	-2.100000	12.258890	75.460458	0.108292	0.793638	0.000000
	47.577553	12.410000	43.680000	-2.100000	12.265604	75.156323	0.102811	0.787114	0.000000
	47.678284	12.420000	43.680000	-2.200000	12.258651	74.595658	0.098402	0.784229	0.000000
	47.778043	12.410000	43.690000	-2.200000	12.264557	74.327975	0.097485	0.787282	0.000000
	47.878254	12.410000	43.690000	-2.300000	12.267763	73.656396	0.100341	0.784179	0.000000
	47.978205	12.410000	43.710000	-1.500000	12.267120	73.521243	0.096498	0.779298	0.000000
	48.077608	12.400000	43.710000	-0.800000	12.260387	73.246761	0.097133	0.772706	0.000000
	48.177335	12.400000	43.710000	-0.400000	12.261875	72.847397	0.098345	0.781026	0.000000
	48.279061	12.410000	43.720000	-0.300000	12.260929	72.476583	0.098701	0.757527	0.000000
	48.378795	12.400000	43.720000	-0.200000	12.258008	72.351409	0.098554	0.753569	0.000000
	48.478039	12.400000	43.730000	-0.200000	12.261875	72.169996	0.100699	0.762542	0.000000
	48.577771	12.410000	43.740000	-0.200000	12.257944	72.063082	0.098269	0.751103	0.000000
	48.682914	12.410000	43.740000	-0.200000	12.266403	71.992860	0.182391	0.718263	0.000000
	48.783501	12.400000	43.750000	-0.200000	12.253158	71.671845	0.231232	0.720175	0.000000
