LabVIEW Measurement	
Writer_Version	2
Reader_Version	2
Separator	Tab
Decimal_Separator	.
Multi_Headings	No
X_Columns	No
Time_Pref	Relative
Operator	seth303
Date	2024/12/02
Time	16:54:17.4215497970581054688
***End_of_Header***	
	
Channels	9									
Samples	1	1	1	1	1	1	1	1	1	
Date	2024/12/02	2024/12/02	2024/12/02	2024/12/02	2024/12/02	2024/12/02	2024/12/02	2024/12/02	2024/12/02	
Time	16:54:17.4215497970581054688	16:54:17.4215497970581054688	16:54:17.4215497970581054688	16:54:17.4215497970581054688	16:54:17.4222717999998336902	16:54:17.4222717999998336902	16:54:17.4222717999998336902	16:54:17.4222717999998336902	16:54:17.4215497970581054688	
Y_Unit_Label	s	psi	deg F	SLPM	psi	Deg F	Thrust	lbf	SLPM	
X_Dimension	Time	Time	Time	Time	Time	Time	Time	Time	Time	
X0	0.0000000000000000E+0	0.0000000000000000E+0	0.0000000000000000E+0	0.0000000000000000E+0	0.0000000000000000E+0	0.0000000000000000E+0	0.0000000000000000E+0	0.0000000000000000E+0	0.0000000000000000E+0	
Delta_X	1.000000	10.000000	10.000000	10.000000	0.100000	0.100000	0.100000	0.100000	1.000000	
***End_of_Header***										
X_Value	Time	MFC Pressure (Resampled)	MFC Temperature (Resampled)	Mass Flow (Resampled)	Pressure	Temperature	Thrust Input	Force	Master_Setpoint	Comment
	10.680937	12.410000	46.430000	0.000000	12.262968	75.805010	0.067144	0.059274	0.000000
	10.779688	12.410000	46.430000	0.000000	12.263877	75.920662	0.067220	0.043642	0.000000
	10.883829	12.410000	46.430000	0.000000	12.253847	76.098779	0.067293	0.051995	0.000000
	10.978726	12.400000	46.430000	0.000000	12.245020	76.118052	0.067123	0.049915	0.000000
	11.083587	12.410000	46.430000	0.000000	12.244120	76.188497	0.067265	0.044514	0.000000
	11.177455	12.400000	46.430000	0.000000	12.248749	75.991113	0.067853	0.056020	0.000000
	11.279360	12.410000	46.430000	0.000000	12.257530	76.151281	0.068068	0.050737	0.000000
	11.379062	12.400000	46.430000	0.000000	12.264970	75.957217	0.067716	0.042719	0.000000
	11.479797	12.410000	46.430000	0.000000	12.255739	75.870148	0.067428	0.045353	0.000000
	11.583905	12.400000	46.430000	0.000000	12.259376	76.180522	0.066985	0.056305	0.000000
	11.678897	12.400000	46.430000	0.000000	12.259285	75.766458	0.066856	0.072507	0.000000
	11.779678	12.400000	46.430000	0.000000	12.254811	76.217737	0.066884	0.059005	0.000000
	11.879783	12.400000	46.430000	0.000000	12.243623	75.929302	0.066970	0.055165	0.000000
	11.979679	12.410000	46.430000	0.000000	12.241952	75.995101	0.067457	0.073631	0.000000
	12.079412	12.400000	46.430000	0.000000	12.250641	76.008393	0.067167	0.066452	0.000000
	12.184275	12.400000	46.430000	0.000000	12.235256	76.098115	0.067144	0.063131	0.000000
	12.279968	12.400000	46.430000	0.000000	12.232050	76.078177	0.067628	0.063165	0.000000
	12.384346	12.410000	46.430000	0.000000	12.267524	76.011716	0.067690	0.067039	0.000000
	12.479813	12.410000	46.430000	0.000000	12.265999	76.051220	0.067458	0.074621	0.000000
	12.579779	12.400000	46.430000	0.000000	12.258936	76.052922	0.067223	0.081782	0.000000
	12.680511	12.400000	46.430000	0.000000	12.254729	76.027003	0.066874	0.083460	0.000000
	12.782517	12.400000	46.430000	0.000000	12.260598	76.116059	0.066739	0.081447	0.000000
	12.879887	12.400000	46.430000	0.000000	12.263289	76.071531	0.066638	0.081816	0.000000
	12.978882	12.400000	46.430000	0.000000	12.261259	75.887429	0.066366	0.082772	0.000000
	13.079655	12.400000	46.430000	0.000000	12.258522	76.084823	0.066801	0.084869	0.000000
	13.178405	12.400000	46.430000	0.000000	12.242338	76.147294	0.066411	0.084768	0.000000
	13.279802	12.400000	46.430000	0.000000	12.265687	76.058904	0.067219	0.090387	0.000000
	13.379539	12.400000	46.430000	0.000000	12.248620	76.254951	0.066947	0.095787	0.000000
	13.483673	12.410000	46.430000	0.000000	12.247922	76.223053	0.067174	0.085892	0.000000
	13.578427	12.400000	46.430000	0.000000	12.256134	75.993480	0.067050	0.093087	0.000000
	13.679951	12.400000	46.430000	0.000000	12.239490	76.066879	0.067277	0.099762	0.000000
	13.779683	12.400000	46.430000	0.000000	12.249098	75.872807	0.068142	0.084466	0.000000
	13.879515	12.410000	46.430000	0.000000	12.239012	76.100773	0.068159	0.095569	0.000000
	13.981239	12.400000	46.430000	0.000000	12.247417	76.142642	0.068293	0.087435	0.000000
	14.084134	12.400000	46.430000	0.000000	12.231719	76.007064	0.067856	0.103117	0.000000
	14.178903	12.400000	46.430000	0.000000	12.258688	76.240331	0.067912	0.099779	0.000000
	14.278493	12.400000	46.430000	0.000000	12.262123	75.993107	0.068047	0.092685	0.000000
	14.384406	12.400000	46.430000	0.000000	12.255610	76.104761	0.067962	0.108367	0.000000
	14.478654	12.400000	46.430000	0.000000	12.264695	75.995101	0.067724	0.102329	0.000000
	14.579384	12.400000	46.430000	0.000000	12.260929	76.041332	0.068242	0.093825	0.000000
	14.678119	12.400000	46.430000	0.000000	12.263207	76.009058	0.068611	0.090185	0.000000
	14.783659	12.410000	46.430000	0.000000	12.256373	76.041332	0.068913	0.096961	0.000000
	14.878443	12.410000	46.430000	0.000000	12.251385	76.004406	0.069507	0.099746	0.000000
	14.983819	12.410000	46.430000	0.000000	12.245901	75.960540	0.069331	0.103301	0.000000
	15.083048	12.400000	46.430000	0.000000	12.250825	76.128021	0.069021	0.092383	0.000000
	15.180055	12.400000	46.430000	0.000000	12.256832	75.965857	0.068582	0.083292	0.000000
	15.279787	12.410000	46.430000	0.000000	12.264180	76.200832	0.069044	0.091896	0.000000
	15.380013	12.400000	46.430000	0.000000	12.264217	75.933290	0.068879	0.103956	0.000000
	15.479768	12.410000	46.430000	0.000000	12.256869	76.152610	0.069314	0.100232	0.000000
	15.583643	12.410000	46.430000	0.000000	12.254380	76.029661	0.069190	0.089816	0.000000
	15.678152	12.400000	46.430000	0.000000	12.244827	75.998424	0.069100	0.092399	0.000000
	15.783335	12.400000	46.430000	0.000000	12.247895	76.110742	0.068896	0.093355	0.000000
	15.880071	12.410000	46.430000	0.000000	12.242530	76.136661	0.069061	0.094697	0.000000
	15.979805	12.400000	46.430000	0.000000	12.238718	76.019692	0.068571	0.099762	0.000000
	16.081635	12.400000	46.430000	0.000000	12.241125	76.036307	0.068521	0.091997	0.000000
	16.181783	12.400000	46.430000	0.000000	12.243578	76.004406	0.068288	0.098119	0.000000
	16.283938	12.410000	46.430000	0.000000	12.240161	75.962534	0.068591	0.094630	0.000000
	16.384974	12.410000	46.430000	0.000000	12.234631	76.034978	0.068771	0.092097	0.000000
	16.480951	12.410000	46.430000	0.000000	12.245938	76.139983	0.068566	0.096592	0.000000
	16.578694	12.400000	46.430000	0.000000	12.255160	76.031655	0.067937	0.088743	0.000000
	16.681538	12.400000	46.420000	0.000000	12.246131	76.036972	0.067527	0.077287	0.000000
	16.779291	12.400000	46.420000	0.000000	12.244175	76.102767	0.067639	0.089531	0.000000
	16.884962	12.410000	46.420000	0.000000	12.256575	75.988455	0.067976	0.088357	0.000000
	16.984940	12.400000	46.420000	0.000000	12.257337	75.981144	0.068070	0.097599	0.000000
	17.083170	12.400000	46.420000	0.000000	12.263969	75.792754	0.067638	0.089884	0.000000
	17.179913	12.410000	46.420000	0.000000	12.245736	76.278210	0.067583	0.092768	0.000000
	17.278650	12.400000	46.420000	0.000000	12.243835	76.146337	0.067605	0.089582	0.000000
	17.379517	12.410000	46.420000	0.000000	12.263207	76.056245	0.068154	0.091578	0.000000
	17.477855	12.400000	46.420000	0.000000	12.264732	75.969553	0.068081	0.081766	0.000000
	17.582251	12.400000	46.420000	0.000000	12.257806	76.034313	0.067948	0.085388	0.000000
	17.683846	12.400000	46.420000	0.000000	12.242889	76.058904	0.068361	0.090370	0.000000
	17.780126	12.410000	46.420000	0.000000	12.260194	76.110077	0.068282	0.090320	0.000000
	17.879858	12.400000	46.420000	0.000000	12.249741	76.093836	0.067746	0.085875	0.000000
	17.979591	12.400000	46.420000	0.000000	12.246168	75.948950	0.067932	0.081615	0.000000
	18.079339	12.400000	46.420000	0.000000	12.251238	75.994436	0.067898	0.081699	0.000000
	18.183244	12.410000	46.420000	0.000000	12.266348	76.094127	0.068093	0.090118	0.000000
	18.282809	12.400000	46.420000	0.000000	12.257686	76.220395	0.067673	0.082034	0.000000
	18.379085	12.400000	46.420000	0.000000	12.253388	76.059277	0.067988	0.091359	0.000000
	18.478818	12.410000	46.420000	0.000000	12.245084	76.122413	0.067932	0.095318	0.000000
	18.577585	12.410000	46.420000	0.000000	12.250852	75.990822	0.068377	0.096005	0.000000
	18.678687	12.400000	46.420000	0.000000	12.244303	76.034978	0.068521	0.095821	0.000000
	18.779936	12.400000	46.420000	0.000000	12.254168	76.093836	0.067965	0.077673	0.000000
	18.882171	12.410000	46.420000	0.000000	12.254462	76.014748	0.068259	0.084583	0.000000
	18.984214	12.410000	46.420000	0.000000	12.248299	76.025382	0.068209	0.091309	0.000000
	19.079950	12.400000	46.420000	0.000000	12.250862	75.976491	0.068093	0.076650	0.000000
	19.179684	12.400000	46.420000	0.000000	12.247683	76.067916	0.067842	0.090571	0.000000
	19.278368	12.410000	46.420000	0.000000	12.247187	75.997468	0.068011	0.083829	0.000000
	19.378114	12.400000	46.420000	0.000000	12.251762	76.052631	0.067825	0.082135	0.000000
	19.480758	12.400000	46.420000	0.000000	12.248657	76.072860	0.068288	0.089498	0.000000
	19.584174	12.400000	46.420000	0.000000	12.250742	76.139983	0.067988	0.083527	0.000000
	19.679946	12.400000	46.420000	0.000000	12.244120	76.159629	0.068016	0.084013	0.000000
	19.782681	12.400000	46.420000	0.000000	12.258752	76.006108	0.068225	0.090705	0.000000
	19.881525	12.400000	46.420000	0.000000	12.244478	76.145008	0.068270	0.084466	0.000000
	19.979484	12.410000	46.420000	0.000000	12.246489	75.998797	0.068366	0.096408	0.000000
	20.079072	12.410000	46.420000	0.000000	12.250265	75.847922	0.068265	0.099595	0.000000
	20.184360	12.400000	46.420000	0.000000	12.257099	76.250008	0.068178	0.087250	0.000000
	20.279899	12.400000	46.420000	0.000000	12.263740	75.917712	0.068305	0.084718	0.000000
	20.379958	12.400000	46.420000	0.000000	12.262904	76.136742	0.068355	0.094815	0.000000
	20.479691	12.410000	46.420000	0.000000	12.255197	75.894076	0.068453	0.084734	0.000000
	20.579361	12.410000	46.420000	0.000000	12.247931	75.875174	0.068078	0.087116	0.000000
	20.679037	12.400000	46.420000	0.000000	12.263923	75.924358	0.067988	0.082286	0.000000
	20.780640	12.410000	46.420000	0.000000	12.255519	76.216489	0.068072	0.091829	0.000000
	20.881370	12.410000	46.420000	0.000000	12.259716	76.157635	0.068310	0.095452	0.000000
	20.979129	12.400000	46.420000	0.000000	12.248703	76.043326	0.067791	0.098437	0.000000
	21.078563	12.410000	46.420000	0.000000	12.241437	76.054624	0.068253	0.095335	0.000000
	21.184810	12.400000	46.420000	0.000000	12.261902	75.960913	0.068116	0.089347	0.000000
	21.278507	12.400000	46.420000	0.000000	12.258357	76.012754	0.086753	0.080189	0.000000
	21.383976	12.410000	46.420000	0.000000	12.257843	76.071904	0.184681	0.100786	0.000000
	21.484471	12.410000	46.420000	0.000000	12.258899	76.269944	0.118424	0.096961	0.000000
	21.578962	12.400000	46.420000	0.000000	12.251817	75.979523	0.110966	0.098907	0.000000
	21.679691	12.410000	46.420000	0.000000	12.249089	75.995474	0.110216	0.094311	0.000000
	21.783963	12.410000	46.420000	0.000000	12.243477	75.917712	0.108073	0.082688	0.000000
	21.878874	12.410000	46.420000	0.000000	12.257925	76.162287	0.106247	0.097599	0.000000
	21.978790	12.400000	46.420000	0.000000	12.250035	76.239375	0.106431	0.087049	0.000000
	22.083938	12.400000	46.420000	0.000000	12.236688	76.051301	0.105553	0.097196	0.000000
	22.183685	12.400000	46.420000	0.000000	12.258871	75.992815	0.105391	0.091125	25.000000
	22.279929	12.410000	46.420000	0.000000	12.265448	75.931669	0.105502	0.099712	25.000000
	22.379664	12.400000	46.420000	0.000000	12.262601	75.820006	0.103488	0.112275	25.000000
	22.483296	12.400000	46.420000	0.000000	12.261269	76.136742	0.104062	0.099578	25.000000
	22.579034	12.410000	46.420000	0.000000	12.259918	76.006481	0.103517	0.091209	25.000000
	22.684070	12.410000	46.420000	0.000000	12.245001	76.138071	0.101560	0.092886	25.000000
	22.778219	12.410000	46.420000	0.000000	12.249337	76.043991	0.102928	0.092752	25.000000
	22.879186	12.400000	46.420000	0.000000	12.242696	75.951317	0.104305	0.089632	25.000000
	22.978920	12.410000	46.420000	0.000000	12.252855	76.035724	0.104214	0.106371	25.000000
	23.082810	12.410000	46.420000	0.000000	12.242641	76.020065	0.105029	0.093473	25.000000
	23.178555	12.400000	46.420000	0.000000	12.263813	75.831678	0.103199	0.100048	25.000000
	23.277494	12.400000	46.420000	0.000000	12.255381	76.049972	0.103962	0.148101	25.000000
	23.382538	12.410000	46.420000	0.000000	12.255767	76.009804	0.104051	0.127403	25.000000
	23.479372	12.400000	46.420000	0.000000	12.249181	76.028040	0.102964	0.115378	25.000000
	23.580101	12.400000	46.420000	0.000000	12.244735	75.833008	0.101954	0.097012	25.000000
	23.681197	12.400000	46.420000	0.000000	12.246563	75.963572	0.101526	0.100651	25.000000
	23.779656	12.400000	46.420000	0.000000	12.241695	75.834629	0.099463	0.119621	25.000000
	23.878678	12.420000	46.420000	2.200000	12.251982	76.172256	0.098753	0.110782	25.000000
	23.980860	12.520000	46.420000	13.600000	12.267368	75.944670	0.099568	0.115898	25.000000
	24.081222	12.770000	46.420000	35.600000	12.264640	75.954640	0.098350	0.130288	25.000000
	24.179906	12.940000	46.420000	57.600000	12.264327	75.825032	0.099315	0.122607	500.000000
	24.277775	13.070000	46.420000	73.900000	12.836941	76.009431	0.099641	0.110950	500.000000
	24.383615	15.750000	46.420000	134.500000	16.256663	75.843934	0.100053	0.210494	500.000000
	24.479309	22.050000	46.420000	268.500000	19.942890	75.827026	0.099613	0.266363	500.000000
	24.584309	26.510000	46.420000	401.200000	22.188405	75.649175	0.099602	0.297392	500.000000
	24.683395	28.860000	46.420000	483.100000	23.059478	75.686108	0.100392	0.338703	500.000000
	24.779230	29.780000	46.410000	528.600000	23.324284	75.513564	0.100230	0.310777	500.000000
	24.878484	29.960000	46.400000	550.500000	23.435871	75.191490	0.098944	0.342158	500.000000
	24.980334	29.940000	46.370000	559.600000	23.406983	74.876970	0.098713	0.337898	500.000000
	25.078231	29.770000	46.350000	562.000000	23.101111	74.478969	0.097642	0.321913	500.000000
	25.177815	29.330000	46.320000	558.000000	22.615115	74.023594	0.096528	0.302189	500.000000
	25.280012	28.680000	46.280000	548.400000	21.962777	73.600136	0.095676	0.295145	500.000000
	25.381781	28.040000	46.230000	536.500000	21.508973	73.130584	0.096243	0.312739	500.000000
	25.480514	27.480000	46.170000	525.400000	21.213958	72.687924	0.096584	0.279798	500.000000
	25.578251	27.070000	46.120000	515.800000	20.877215	72.493523	0.095301	0.291035	500.000000
	25.683853	26.740000	46.050000	507.500000	20.726734	71.926857	0.095537	0.276947	500.000000
	25.778609	26.540000	45.990000	501.800000	20.419918	71.336717	0.095632	0.282163	500.000000
	25.883727	26.380000	45.920000	497.200000	20.515550	70.889004	0.094646	0.302105	500.000000
	25.983872	26.270000	45.850000	493.900000	20.417180	70.377213	0.093067	0.307590	500.000000
	26.080607	26.190000	45.790000	491.600000	20.414159	69.961289	0.093744	0.294189	500.000000
	26.178345	26.160000	45.720000	490.000000	20.424922	69.472607	0.092502	0.289056	500.000000
	26.284843	26.150000	45.640000	488.800000	20.400848	68.819075	0.092011	0.292511	500.000000
	26.379573	26.180000	45.570000	488.000000	20.412649	68.612303	0.092959	0.292713	500.000000
	26.482030	26.210000	45.490000	487.200000	20.497047	68.102625	0.092879	0.287647	500.000000
	26.581076	26.220000	45.420000	486.700000	20.413027	67.594828	0.092541	0.302122	500.000000
	26.679379	26.230000	45.340000	486.300000	20.614959	66.896662	0.093002	0.293903	500.000000
	26.779113	26.210000	45.270000	486.000000	20.594378	66.539857	0.093430	0.294256	500.000000
	26.878844	26.230000	45.200000	485.800000	20.631857	66.004982	0.093955	0.288151	500.000000
	26.979722	26.280000	45.120000	486.100000	20.669713	65.541745	0.094095	0.285719	500.000000
	27.079247	26.350000	45.040000	486.800000	20.799615	65.226142	0.093513	0.289559	500.000000
	27.184166	26.410000	44.970000	488.100000	20.632235	64.811523	0.092490	0.297023	500.000000
	27.281858	26.490000	44.900000	489.500000	20.651021	64.206723	0.092384	0.302273	500.000000
	27.380594	26.550000	44.830000	490.800000	20.730227	63.683326	0.093079	0.301636	500.000000
	27.478331	26.620000	44.750000	492.100000	20.893831	63.289905	0.091154	0.304520	500.000000
	27.582224	26.670000	44.670000	493.400000	21.004284	63.075554	0.091960	0.308999	500.000000
	27.677981	26.750000	44.600000	494.600000	20.982288	62.385728	0.093285	0.305007	500.000000
	27.781232	26.830000	44.520000	496.100000	20.968788	62.124843	0.094118	0.299858	500.000000
	27.879364	26.900000	44.450000	497.400000	21.109640	61.852556	0.094472	0.300176	500.000000
	27.979759	26.960000	44.380000	498.800000	21.236615	61.364102	0.093492	0.287782	500.000000
	28.079490	26.990000	44.310000	500.000000	21.254363	60.950513	0.092616	0.308596	500.000000
	28.179883	27.060000	44.230000	501.000000	21.109168	60.860825	0.092700	0.304353	500.000000
	28.279273	27.100000	44.160000	501.800000	25.122508	60.294516	0.084803	0.473318	0.000000
	28.378117	26.740000	44.080000	458.000000	22.707915	60.072535	0.219667	-0.065513	0.000000
	28.481753	22.820000	44.010000	233.100000	17.487514	59.747121	0.204898	0.044380	0.000000
	28.578712	18.030000	43.940000	112.300000	14.472600	59.432087	0.223909	0.014307	0.000000
	28.679442	15.080000	43.870000	53.500000	12.779637	59.184286	0.182910	0.049311	0.000000
	28.779175	13.450000	43.800000	25.800000	12.268250	58.768328	0.176658	0.016051	0.000000
	28.879458	12.720000	43.740000	12.500000	12.262334	58.619612	0.180517	0.039382	0.000000
	28.977880	12.500000	43.680000	6.100000	12.252460	58.326844	0.175205	0.027054	0.000000
	29.083141	12.450000	43.630000	2.700000	12.263868	58.084298	0.178858	0.032186	0.000000
	29.182771	12.430000	43.580000	1.400000	12.241933	57.940528	0.176185	0.040791	0.000000
	29.280525	12.420000	43.530000	0.700000	12.245653	57.725129	0.175471	0.037805	0.000000
	29.379272	12.420000	43.500000	0.400000	12.244248	57.697653	0.177134	0.022861	0.000000
	29.484378	12.420000	43.460000	0.200000	12.251697	57.381997	0.176753	0.044128	0.000000
	29.578140	12.420000	43.440000	0.100000	12.259487	57.262695	0.180370	0.054359	0.000000
	29.679950	12.410000	43.410000	0.000000	12.244413	57.180923	0.177139	0.038023	0.000000
	29.782624	12.410000	43.380000	0.000000	12.244413	57.128641	0.174865	0.041646	0.000000
	29.878797	12.410000	43.360000	0.000000	12.242402	57.022064	0.173746	0.041344	0.000000
	29.979569	12.410000	43.350000	0.000000	12.260378	56.853517	0.174724	0.045034	0.000000
	30.081592	12.410000	43.330000	0.000000	12.262536	56.734192	0.175454	0.031801	0.000000
	30.179261	12.410000	43.320000	0.000000	12.242907	56.713704	0.176264	0.042619	0.000000
	30.284439	12.410000	43.310000	0.000000	12.240537	56.858503	0.191464	0.029687	0.000000
	156.075077	12.400000	45.720000	0.000000	12.259505	73.042003	0.085967	-0.011154	0.000000
	156.174911	12.410000	45.720000	0.000000	12.265687	73.056647	0.085893	-0.016085	0.000000
	156.280093	12.410000	45.720000	0.000000	12.264970	73.089636	0.086733	-0.015682	0.000000
	156.374905	12.410000	45.720000	0.000000	12.261902	72.967454	0.085821	-0.010298	0.000000
	156.474130	12.410000	45.720000	0.000000	12.259726	73.067962	0.085854	-0.011405	0.000000
	156.575858	12.410000	45.720000	0.000000	12.263620	73.164181	0.085519	-0.011288	0.000000
	156.675733	12.410000	45.720000	0.000000	12.261581	73.165512	0.085347	-0.011892	0.000000
	156.775467	12.410000	45.720000	0.000000	12.262601	73.164846	0.085616	-0.010164	0.000000
	156.880682	12.400000	45.720000	0.000000	12.261232	73.072996	0.084850	-0.016672	0.000000
	156.976278	12.410000	45.720000	0.000000	12.263785	73.182442	0.084480	-0.006625	0.000000
	157.074165	12.410000	45.720000	0.000000	12.263289	72.992082	0.084295	-0.009158	0.000000
	157.175890	12.410000	45.720000	0.000000	12.263124	73.241011	0.084463	-0.001124	0.000000
	157.274629	12.410000	45.720000	0.000000	12.255656	73.394454	0.085054	-0.006608	0.000000
	157.374406	12.410000	45.720000	0.000000	12.252267	73.080317	0.085031	-0.006793	0.000000
	157.475768	12.400000	45.720000	0.000000	12.254536	73.038384	0.084970	-0.000738	0.000000
	157.579279	12.410000	45.720000	0.000000	12.249217	73.004438	0.084447	-0.004981	0.000000
	157.675032	12.410000	45.720000	0.000000	12.256400	72.988088	0.084918	-0.002784	0.000000
	157.775751	12.410000	45.720000	0.000000	12.256722	73.213432	0.084707	-0.000537	0.000000
	157.875484	12.410000	45.720000	0.000000	12.264722	73.076324	0.084278	0.006877	0.000000
	157.975626	12.410000	45.720000	0.000000	12.245635	73.195462	0.084197	-0.008671	0.000000
	158.075361	12.410000	45.720000	0.000000	12.255454	73.192134	0.083842	-0.008990	0.000000
	158.180103	12.410000	45.720000	0.000000	12.258642	72.989128	0.083590	-0.004965	0.000000
	158.275630	12.410000	45.720000	0.000000	12.256400	73.208773	0.083742	-0.000386	0.000000
	158.375363	12.410000	45.720000	0.000000	12.243127	72.954515	0.083108	0.000637	0.000000
	158.475097	12.410000	45.720000	0.000000	12.254407	73.044375	0.083793	-0.005535	0.000000
	158.574831	12.410000	45.720000	0.000000	12.262490	73.354524	0.083842	-0.001359	0.000000
	158.675562	12.410000	45.720000	0.000000	12.246811	73.172167	0.083277	0.005904	0.000000
	158.778534	12.410000	45.720000	0.000000	12.247334	73.210770	0.083125	0.003673	0.000000
	158.876188	12.410000	45.720000	0.000000	12.253737	73.225412	0.083147	0.018181	0.000000
	158.975922	12.400000	45.720000	0.000000	12.266238	73.171876	0.084028	0.000889	0.000000
	159.074656	12.410000	45.720000	0.000000	12.263767	73.026403	0.083344	0.005535	0.000000
	159.175386	12.410000	45.720000	0.000000	12.264052	73.040090	0.083052	0.009929	0.000000
	159.275121	12.410000	45.720000	0.000000	12.256097	73.044375	0.082551	0.001291	0.000000
	159.374855	12.410000	45.720000	0.000000	12.262803	73.082689	0.083512	0.004160	0.000000
	159.474153	12.400000	45.720000	0.000000	12.263473	73.243091	0.083613	0.002784	0.000000
	159.575786	12.410000	45.720000	0.000000	12.248152	73.316299	0.083523	0.017628	0.000000
	159.675509	12.410000	45.720000	0.000000	12.249337	73.072996	0.083714	0.016102	0.000000
	159.775249	12.400000	45.720000	0.000000	12.265522	73.213141	0.084363	0.015733	0.000000
	159.877711	12.410000	45.720000	0.000000	12.264805	73.018790	0.084185	0.010449	0.000000
	159.974454	12.410000	45.720000	0.000000	12.265356	73.198499	0.084112	0.015766	0.000000
	160.078928	12.410000	45.720000	0.000000	12.265127	73.195837	0.083804	0.021754	0.000000
	160.179924	12.410000	45.720000	0.000000	12.259560	73.213141	0.083754	0.028798	0.000000
	160.274946	12.410000	45.720000	0.000000	12.260001	73.085351	0.083675	0.033092	0.000000
	160.374679	12.410000	45.720000	0.000000	12.242834	73.030106	0.083485	0.039248	0.000000
	160.474424	12.400000	45.720000	0.000000	12.258127	73.306982	0.084070	0.032019	0.000000
	160.574746	12.410000	45.720000	0.000000	12.250898	73.180529	0.084080	0.018349	0.000000
	160.674479	12.410000	45.720000	0.000000	12.247445	72.929596	0.084679	0.014760	0.000000
	160.778249	12.400000	45.720000	0.000000	12.248317	73.132608	0.084462	0.015816	0.000000
	160.876000	12.410000	45.720000	0.000000	12.249199	73.145919	0.084721	0.025108	0.000000
	160.975718	12.410000	45.720000	0.000000	12.254536	73.195171	0.085085	0.020043	0.000000
	161.074455	12.400000	45.720000	0.000000	12.255050	73.003481	0.084887	0.026131	0.000000
	161.180182	12.410000	45.730000	0.000000	12.260047	73.189847	0.084590	0.016236	0.000000
	161.275917	12.410000	45.730000	0.000000	12.249750	72.921608	0.084568	0.024068	0.000000
	161.379012	12.410000	45.730000	0.000000	12.264272	73.082689	0.084823	0.027691	0.000000
	161.475714	12.410000	45.730000	0.000000	12.249465	73.085351	0.085242	0.017812	0.000000
	161.575496	12.410000	45.730000	0.000000	12.256832	73.153240	0.085029	0.026433	0.000000
	161.674232	12.410000	45.730000	0.000000	12.240859	73.022784	0.085419	0.021922	0.000000
	161.778148	12.410000	45.730000	0.000000	12.246379	73.040090	0.085993	0.024437	0.000000
	161.875887	12.410000	45.730000	0.000000	12.253819	73.130694	0.084385	0.032572	0.000000
	161.979416	12.410000	45.730000	0.000000	12.249539	73.088013	0.084350	0.032253	0.000000
	162.079642	12.410000	45.730000	0.000000	12.259854	73.157234	0.085237	0.031532	0.000000
	162.175384	12.410000	45.730000	0.000000	12.252855	73.034099	0.085439	0.022592	0.000000
	162.275110	12.410000	45.730000	0.000000	12.260819	73.008140	0.085662	0.029503	0.000000
	162.375840	12.410000	45.730000	0.000000	12.261958	73.159231	0.085428	0.020714	0.000000
	162.476974	12.410000	45.730000	0.000000	12.264171	73.090010	0.085214	0.025511	0.000000
	162.574710	12.410000	45.730000	0.000000	12.263482	73.131276	0.085153	0.024387	0.000000
	162.679409	12.410000	45.730000	0.000000	12.264860	73.054068	0.085282	0.021754	0.000000
	162.775493	12.410000	45.730000	0.000000	12.261406	73.134979	0.085225	0.021133	0.000000
	162.874229	12.410000	45.730000	0.000000	12.264539	73.376195	0.084665	0.026433	0.000000
	162.974014	12.410000	45.730000	0.000000	12.267928	72.803119	0.084704	0.030157	0.000000
	163.079891	12.410000	45.730000	0.000000	12.252579	73.207526	0.085033	0.031012	0.000000
	163.174631	12.410000	45.730000	0.000000	12.256217	73.280070	0.085029	0.022307	0.000000
	163.278863	12.400000	45.730000	0.000000	12.249337	72.951271	0.085641	0.023263	0.000000
	163.375288	12.410000	45.730000	0.000000	12.248253	73.246793	0.097488	0.032958	0.000000
	163.474995	12.400000	45.730000	0.000000	12.250265	73.051780	0.160660	0.022425	0.000000
	163.575727	12.410000	45.730000	0.000000	12.258164	72.920651	0.130075	0.021351	0.000000
	163.674755	12.410000	45.730000	0.000000	12.253608	73.119296	0.126993	0.018567	0.000000
	163.775476	12.410000	45.730000	0.000000	12.251156	73.068420	0.128195	0.019154	0.000000
	163.874368	12.410000	45.730000	0.000000	12.257870	73.223790	0.130676	0.020915	0.000000
	163.977999	12.410000	45.730000	0.000000	12.247500	72.987215	0.132919	0.013150	0.000000
	164.075767	12.400000	45.730000	0.000000	12.255408	73.248790	0.134667	0.014827	0.000000
	164.175499	12.410000	45.730000	0.000000	12.247334	73.005562	0.134867	0.029503	0.000000
	164.274277	12.410000	45.730000	0.000000	12.258577	73.221502	0.134582	0.035390	25.000000
	164.373011	12.400000	45.730000	0.000000	12.247288	73.253448	0.133607	0.018349	25.000000
	164.474754	12.410000	45.730000	0.000000	12.258614	73.109687	0.131455	0.018399	25.000000
	164.580621	12.410000	45.730000	0.000000	12.245130	73.298705	0.131900	0.003505	25.000000
	164.675643	12.410000	45.730000	0.000000	12.259027	73.130320	0.129616	0.016806	25.000000
	164.775376	12.410000	45.730000	0.000000	12.262931	73.114346	0.130600	0.024957	25.000000
	164.875110	12.410000	45.730000	0.000000	12.252276	73.349284	0.129666	0.016588	25.000000
	164.978824	12.410000	45.730000	0.000000	12.251624	73.065758	0.131552	0.020580	25.000000
	165.074564	12.410000	45.730000	0.000000	12.267046	72.839149	0.130434	0.017460	25.000000
	165.179006	12.410000	45.730000	0.000000	12.259863	73.083438	0.130936	0.027691	25.000000
	165.276711	12.410000	45.730000	0.000000	12.252588	73.309353	0.126384	0.020362	25.000000
	165.375415	12.410000	45.730000	0.000000	12.257117	73.143340	0.123674	0.076885	25.000000
	165.474794	12.370000	45.730000	0.500000	12.254618	73.310393	0.125200	0.046996	25.000000
	165.574525	12.410000	45.730000	0.200000	12.248124	73.303363	0.123685	0.041461	25.000000
	165.675259	12.410000	45.730000	0.100000	12.251844	73.936176	0.121032	0.054007	25.000000
	165.773993	12.410000	45.730000	0.000000	12.259248	74.595392	0.121077	0.036866	25.000000
	165.874873	12.420000	45.730000	0.800000	12.280907	75.361806	0.121541	0.039029	25.000000
	165.973642	12.780000	45.730000	7.400000	12.888863	76.422599	0.125093	0.036212	25.000000
	166.074371	13.600000	45.730000	28.200000	13.625316	77.195899	0.121671	0.056506	25.000000
	166.175103	15.040000	45.730000	52.300000	16.215314	78.248396	0.122542	0.080592	25.000000
	166.274868	16.090000	45.730000	68.500000	15.889617	79.023625	0.121067	0.159405	25.000000
	166.374602	17.610000	45.730000	76.100000	15.026473	79.984265	0.121275	0.196942	500.000000
	166.473935	18.970000	45.730000	82.200000	18.588369	80.550232	0.120926	0.204272	500.000000
	166.578198	23.620000	45.730000	126.400000	31.512460	81.185053	0.119735	1.031690	500.000000
	166.674940	40.590000	45.730000	242.700000	54.639171	82.353955	0.118277	3.815244	500.000000
	166.774674	60.960000	45.730000	387.700000	92.634006	82.656004	0.116543	0.368625	500.000000
	166.877951	80.780000	45.730000	558.400000	81.969905	82.957343	0.115742	2.605280	500.000000
	166.974694	94.810000	45.730000	662.800000	80.211071	83.647924	0.114670	4.412544	500.000000
	167.074939	99.580000	45.730000	734.200000	72.442736	84.600290	0.116771	5.160578	500.000000
	167.179131	88.400000	45.730000	700.000000	61.446790	85.644102	0.113423	6.126072	500.000000
	167.274861	69.290000	45.720000	560.600000	44.788258	86.996631	0.115379	3.079454	500.000000
	167.375582	58.090000	45.720000	428.800000	46.494157	89.479050	0.114138	0.653538	500.000000
	167.475315	49.650000	45.710000	341.800000	56.899943	92.708811	0.114688	0.245045	500.000000
	167.575154	48.250000	45.700000	334.100000	51.342881	95.032481	0.115418	2.269781	500.000000
	167.674889	57.030000	45.680000	401.300000	57.944082	96.882707	0.116532	5.540991	500.000000
	167.779981	71.440000	45.660000	506.000000	61.294781	99.765392	0.115277	5.255812	500.000000
	167.876233	78.930000	45.640000	579.800000	63.190173	103.002089	0.115945	4.603582	500.000000
	167.974969	81.930000	45.620000	611.000000	62.343276	105.612353	0.116136	4.587565	500.000000
	168.074702	80.710000	45.600000	605.800000	60.858958	108.413085	0.114423	5.590200	500.000000
	168.174963	76.330000	45.580000	576.800000	56.946936	110.897798	0.114146	5.163782	500.000000
	168.275719	71.180000	45.560000	525.200000	55.159248	113.643243	0.114626	5.114773	500.000000
	168.379596	66.510000	45.530000	471.300000	51.747096	116.188688	0.113316	4.151213	500.000000
	168.473968	61.940000	45.520000	436.700000	52.797724	118.964134	0.112960	4.537700	500.000000
	168.576718	62.800000	45.490000	431.300000	52.581203	121.608374	0.112527	4.223485	500.000000
	168.675453	61.840000	45.470000	427.000000	57.087267	124.396457	0.111110	4.211459	500.000000
	168.776310	65.770000	45.440000	452.000000	62.267920	127.364063	0.112718	3.837501	500.000000
	168.875020	66.110000	45.420000	481.200000	67.962161	130.380569	0.111122	2.627353	500.000000
	168.974751	67.390000	45.390000	498.500000	80.661498	133.634836	0.114739	-0.091074	500.000000
	169.080054	71.210000	45.360000	521.000000	80.557689	136.446724	0.113389	0.862841	500.000000
	169.175969	74.690000	45.340000	534.300000	64.431739	139.053891	0.113057	2.840732	500.000000
	169.276713	79.220000	45.320000	524.900000	63.171913	142.072327	0.112761	5.100013	500.000000
	169.375449	76.950000	45.300000	518.000000	76.239179	145.105970	0.113175	1.841312	500.000000
	169.474383	72.450000	45.280000	501.800000	81.099146	148.000052	0.113745	1.913987	500.000000
	169.575130	78.490000	45.250000	510.900000	64.389195	150.521813	0.112919	3.837602	500.000000
	169.678395	79.360000	45.230000	505.500000	75.263870	153.794653	0.113149	2.453624	500.000000
	169.779763	78.000000	45.200000	493.000000	77.464149	156.709121	0.113006	2.225166	500.000000
	169.876496	76.710000	45.180000	497.500000	67.174585	158.755879	0.113643	4.815921	500.000000
	169.974235	75.120000	45.160000	480.300000	85.094560	162.010765	0.114061	0.769520	500.000000
	170.076183	75.330000	45.130000	484.600000	65.836715	163.777855	0.111987	3.365709	500.000000
	170.174428	79.210000	45.110000	485.000000	85.076780	166.735061	0.110323	0.916144	500.000000
	170.279154	74.940000	45.090000	471.900000	69.922065	168.533293	0.111359	2.954902	500.000000
	170.380080	83.000000	45.060000	449.000000	86.136822	170.789649	0.110216	1.981043	500.000000
	170.473737	84.440000	45.040000	458.600000	74.957998	172.218727	0.109585	3.704194	500.000000
	170.575466	85.110000	45.020000	487.300000	85.078725	173.670998	0.109786	2.235984	500.000000
	170.674201	91.390000	44.990000	500.500000	87.064161	174.500474	0.109082	3.913178	500.000000
	170.774934	86.260000	44.970000	518.300000	80.790866	175.313871	0.107223	3.467333	500.000000
	170.873670	93.400000	44.950000	534.100000	91.108866	175.755391	0.106979	2.306446	500.000000
	170.975237	92.380000	44.930000	489.000000	90.087508	175.709345	0.106992	2.637936	500.000000
	171.075842	92.040000	44.900000	433.900000	90.801709	174.962598	0.107875	2.916459	500.000000
	171.175991	90.960000	44.880000	413.800000	96.887642	174.367704	0.107892	2.870369	500.000000
	171.273729	96.540000	44.860000	425.900000	100.226657	173.668420	0.107994	3.245585	500.000000
	171.378663	103.700000	44.840000	456.800000	111.106946	172.235120	0.107875	3.297428	500.000000
	171.474403	110.570000	44.810000	486.600000	115.631728	171.250696	0.107757	3.447508	500.000000
	171.579699	118.130000	44.790000	504.600000	122.052961	169.477623	0.107910	3.579457	500.000000
	171.676937	121.790000	44.760000	520.300000	124.546322	167.973311	0.106874	3.858349	500.000000
	171.775190	127.490000	44.720000	520.900000	125.673861	166.160619	0.103928	3.949776	500.000000
	171.873927	128.630000	44.700000	534.500000	127.665939	164.233466	0.104273	3.918797	500.000000
	171.978922	130.400000	44.660000	538.600000	126.772980	162.106791	0.104959	4.116695	500.000000
	172.074789	131.420000	44.620000	529.300000	129.420808	159.990594	0.104262	4.067837	500.000000
	172.177186	131.890000	44.580000	521.400000	133.176261	158.054257	0.105466	3.961600	500.000000
	172.278697	131.320000	44.530000	522.200000	130.743932	156.079592	0.103203	4.101935	500.000000
	172.374975	133.380000	44.490000	527.000000	133.121284	153.596024	0.104399	4.199434	500.000000
	172.476140	132.540000	44.450000	526.500000	131.207451	151.435666	0.105687	4.282206	500.000000
	172.573879	133.950000	44.400000	520.400000	132.122033	149.265288	0.107791	4.282709	500.000000
	172.679254	135.170000	44.350000	519.400000	131.703189	146.898885	0.104546	4.419320	500.000000
	172.774512	134.300000	44.310000	516.800000	133.971896	144.859656	0.106169	4.416184	500.000000
	172.879048	134.150000	44.260000	525.100000	129.808276	142.512038	0.105687	4.587145	500.000000
	172.978614	134.350000	44.210000	510.500000	132.961126	140.500106	0.104699	4.444865	500.000000
	173.076343	133.710000	44.160000	509.600000	133.231520	138.248913	0.102050	4.368148	500.000000
	173.174081	134.100000	44.110000	501.800000	132.069772	135.987412	0.103684	4.528861	500.000000
	173.279954	133.770000	44.060000	512.000000	132.445626	133.818435	0.103708	4.411756	500.000000
	173.374179	134.800000	44.010000	505.700000	130.744119	131.546408	0.101436	4.426633	500.000000
	173.475010	132.510000	43.960000	507.700000	129.565980	129.627447	0.101230	4.501455	500.000000
	173.575683	134.650000	43.900000	502.900000	132.269921	127.353765	0.101158	4.456756	500.000000
	173.674150	131.510000	43.850000	504.500000	129.081200	125.477900	0.101523	4.480003	500.000000
	173.775190	132.580000	43.800000	498.200000	128.701880	123.571003	0.102877	4.388761	500.000000
	173.874923	132.280000	43.740000	493.200000	130.954384	121.412772	0.103333	4.454207	500.000000
	173.975352	132.010000	43.690000	498.600000	128.953823	119.532263	0.103186	4.627148	500.000000
	174.077414	132.950000	43.640000	493.000000	132.451807	117.843647	0.152720	4.257969	500.000000
	174.179225	132.060000	43.580000	495.500000	128.398006	115.985211	0.159037	4.438978	500.000000
	174.287098	130.360000	43.530000	497.100000	130.395800	114.075040	0.150332	4.274205	500.000000
	174.374867	131.080000	43.480000	498.400000	126.470174	112.350021	0.132244	4.610476	500.000000
	174.474599	132.380000	43.430000	494.600000	129.774278	110.706914	0.123452	4.455415	500.000000
	174.578954	130.630000	43.370000	505.300000	128.814646	108.989025	0.123907	4.471315	500.000000
	174.673794	130.000000	43.320000	500.700000	126.852870	107.560536	0.120602	4.618191	500.000000
	174.779294	134.090000	43.270000	488.500000	132.152566	105.810112	0.113673	4.125585	500.000000
	174.878739	130.890000	43.220000	484.200000	127.431822	104.293960	0.111883	4.401877	500.000000
	174.974603	131.780000	43.170000	488.600000	130.507255	103.009094	0.108647	4.248979	500.000000
	175.074336	132.610000	43.120000	502.500000	129.579186	101.456194	0.107076	4.465881	500.000000
	175.177311	131.970000	43.060000	508.900000	129.725575	100.076330	0.106320	4.523309	500.000000
	175.275198	131.200000	43.010000	517.800000	130.200146	98.820304	0.106878	4.384752	500.000000
	175.377640	132.270000	42.960000	512.900000	132.639313	97.375142	0.108156	4.346511	500.000000
	175.479262	130.900000	42.910000	514.400000	131.867187	96.127628	0.107082	4.169763	500.000000
	175.573838	130.340000	42.860000	508.100000	128.329502	95.002664	0.105015	4.456505	500.000000
	175.675565	131.710000	42.810000	499.600000	128.835157	93.692672	0.105735	4.295322	500.000000
	175.775297	131.140000	42.760000	497.400000	130.441600	92.309961	0.103556	4.231419	500.000000
	175.875887	131.090000	42.720000	501.800000	128.441978	91.341009	0.104919	4.417375	500.000000
	175.973624	131.040000	42.670000	507.900000	128.483081	90.318132	0.108287	4.508231	500.000000
	176.073871	130.590000	42.610000	507.900000	128.855481	89.258404	0.109256	4.332624	500.000000
	176.180112	129.510000	42.560000	512.100000	128.703285	88.254220	0.108084	4.210151	500.000000
	176.274943	129.490000	42.520000	510.900000	126.492761	87.330774	0.109029	4.346461	500.000000
	176.373680	128.350000	42.470000	513.100000	127.372390	86.383742	0.110487	4.298877	500.000000
	176.474862	128.410000	42.420000	512.700000	126.926096	85.388619	0.112595	4.271320	500.000000
	176.574102	128.370000	42.370000	509.900000	126.181346	84.322540	0.111949	4.271371	500.000000
	176.679095	127.600000	42.320000	503.600000	124.858478	83.480227	0.114094	4.282004	500.000000
	176.779508	126.640000	42.270000	501.100000	125.111295	82.690901	0.112359	4.253827	500.000000
	176.874953	126.150000	42.230000	499.200000	125.592026	82.020885	0.113695	4.346897	500.000000
	176.974686	125.520000	42.180000	488.900000	126.094975	81.084092	0.111887	4.331382	500.000000
	177.075416	126.880000	42.130000	483.000000	124.432457	80.233801	0.112386	4.306459	500.000000
	177.173811	125.980000	42.080000	491.300000	126.109509	79.442098	0.113035	4.162350	500.000000
	177.278852	124.760000	42.030000	499.200000	123.432761	78.742035	0.112667	4.226538	500.000000
	177.375080	125.080000	41.980000	500.000000	123.428596	78.268478	0.110257	4.221842	500.000000
	177.478385	124.960000	41.940000	501.400000	123.463310	77.315911	0.112455	4.252183	500.000000
	177.575125	124.160000	41.890000	501.600000	123.499692	76.838311	0.111139	4.230530	500.000000
	177.673862	125.370000	41.850000	500.800000	123.045528	76.159906	0.109976	4.330326	500.000000
	177.775790	124.580000	41.800000	500.700000	123.084317	75.423428	0.109509	4.278080	500.000000
	177.874702	123.860000	41.750000	501.900000	122.783362	74.925793	0.108243	4.073825	500.000000
	177.976680	127.900000	41.700000	486.400000	122.404183	74.336531	0.110775	4.172614	500.000000
	178.079912	123.760000	41.660000	495.200000	121.317931	73.726093	0.111564	4.497463	500.000000
	178.174658	124.910000	41.610000	492.800000	124.431809	73.317881	0.111233	4.145041	500.000000
	178.274390	125.390000	41.570000	496.800000	120.170211	72.634569	0.107112	4.010257	0.000000
	178.374595	120.450000	41.530000	451.100000	102.740292	72.295677	0.110436	3.751526	0.000000
	178.474328	100.490000	41.480000	279.300000	81.989166	71.845885	0.108018	3.230942	0.000000
	178.578856	80.300000	41.430000	140.500000	65.993174	71.227075	0.110035	2.937408	0.000000
	178.675268	64.480000	41.390000	80.300000	53.949567	70.948584	0.111353	2.539029	0.000000
	178.774107	53.010000	41.350000	47.000000	44.255331	70.414814	0.110306	2.284188	0.000000
	178.875004	44.040000	41.300000	29.300000	36.560072	69.937861	0.110152	2.114133	0.000000
	178.974736	36.510000	41.260000	20.900000	30.356898	69.289517	0.109555	1.917761	0.000000
	179.074864	30.160000	41.220000	15.700000	25.363996	69.002096	0.110222	1.707317	0.000000
	179.179959	25.050000	41.170000	12.600000	21.107186	68.539206	0.111126	1.542310	0.000000
	179.283535	20.880000	41.130000	10.300000	17.188817	68.170957	0.111250	1.433289	0.000000
	179.373507	17.990000	41.100000	8.100000	14.499222	67.922086	0.109671	1.362962	0.000000
	179.476202	15.360000	41.070000	3.400000	12.753676	67.356181	0.111149	1.331027	0.000000
	179.573941	13.310000	41.030000	1.600000	12.266165	66.932990	0.111576	1.294782	0.000000
	179.680809	12.570000	41.010000	-0.400000	12.259321	66.667285	0.111093	1.288409	0.000000
	179.774550	12.440000	40.980000	-1.300000	12.247683	66.293375	0.109874	1.284283	0.000000
	179.879796	12.430000	40.950000	-1.500000	12.264318	65.996204	0.109752	1.279284	0.000000
	179.975554	12.420000	40.930000	-1.500000	12.265127	65.960808	0.110579	1.273984	0.000000
	180.075054	12.420000	40.910000	-1.400000	12.266798	65.582770	0.109645	1.273129	0.000000
	180.174788	12.420000	40.890000	-1.300000	12.265209	65.494973	0.110639	1.278245	0.000000
	180.280150	12.410000	40.880000	-1.100000	12.265356	65.236068	0.110305	1.276483	0.000000
	180.374863	12.420000	40.870000	-1.100000	12.251293	65.068376	0.112008	1.278580	0.000000
	180.479322	12.420000	40.860000	-1.000000	12.258403	64.892653	0.109461	1.270110	0.000000
	180.579490	12.410000	40.850000	-0.900000	12.266082	64.837194	0.112310	1.278110	0.000000
	180.674708	12.410000	40.850000	-0.900000	12.268250	64.691524	0.111047	1.269489	0.000000
	180.774442	12.410000	40.840000	-0.900000	12.266082	64.560254	0.113215	1.273548	0.000000
	180.873792	12.410000	40.840000	-0.900000	12.258688	64.526464	0.112806	1.268936	0.000000
	180.973855	12.410000	40.840000	-0.900000	12.259863	64.559210	0.111492	1.269305	0.000000
	181.076810	12.410000	40.840000	-1.000000	12.249934	64.410180	0.111164	1.282052	0.000000
	181.174624	12.410000	40.840000	-1.000000	12.251385	64.554532	0.111484	1.265615	0.000000
	181.280175	12.410000	40.840000	-1.000000	0.000000	64.377809	0.110705	1.479547	0.000000
	181.374879	54.000000	40.850000	10.200000	0.000000	64.517776	0.109916	1.905333	0.000000
	181.474614	56.870000	40.850000	4.800000	0.000000	64.503074	0.110168	1.713204	0.000000
	181.580235	49.860000	40.860000	4.500000	0.000000	64.375135	0.109714	1.759396	0.000000
	181.674956	47.900000	40.860000	2.000000	0.000000	64.369412	0.109799	1.658308	0.000000
	181.779661	46.100000	40.870000	0.600000	0.000000	64.298945	0.108428	1.695006	0.000000
	181.876816	44.980000	40.880000	-0.300000	0.000000	64.205666	0.109174	1.651213	0.000000
	181.974874	44.310000	40.890000	-1.000000	0.000000	64.058327	0.109478	1.659516	0.000000
	182.073796	44.210000	40.890000	-1.800000	0.000000	63.921673	0.109411	1.621023	0.000000
	182.179021	44.210000	40.900000	-2.100000	0.000000	63.622768	0.109602	1.645158	0.000000
	182.273758	44.190000	40.900000	-2.300000	0.000000	63.579689	0.109996	1.623589	0.000000
	182.378194	44.170000	40.910000	-2.400000	36.927641	63.425916	0.110243	1.657755	0.000000
	182.477767	44.140000	40.910000	-2.200000	35.932151	63.033790	0.108126	1.624746	0.000000
	182.579138	44.110000	40.920000	-2.000000	35.747030	62.710402	0.109456	1.644639	0.000000
	182.674883	44.090000	40.930000	-2.000000	35.709892	62.458917	0.108862	1.617299	0.000000
	182.773618	44.050000	40.930000	-1.900000	35.570311	62.023062	0.109287	1.633233	0.000000
	182.878252	44.030000	40.940000	-1.900000	35.308526	61.863165	0.107664	1.604267	0.000000
	182.974994	44.000000	40.940000	-1.900000	35.185653	61.436946	0.109260	1.611882	0.000000
	183.076015	43.960000	40.960000	-1.900000	35.212003	61.335608	0.111525	1.598380	0.000000
	183.178696	43.930000	40.960000	-1.900000	35.189854	60.920383	0.108248	1.612385	0.000000
	183.275189	43.910000	40.970000	-1.900000	35.109180	60.457474	0.108320	1.591520	0.000000
	183.374928	43.880000	40.980000	-1.900000	35.026692	60.224501	0.110877	1.590531	0.000000
	183.479507	43.840000	40.990000	-1.100000	34.438296	59.905134	0.110093	1.588401	0.000000
	183.575218	43.810000	41.000000	-0.500000	13.533743	59.612512	0.115325	0.750768	0.000000
	183.679971	13.250000	41.010000	20.000000	12.251201	59.277663	0.113941	0.785051	0.000000
	183.774851	12.420000	41.020000	10.200000	12.256832	58.976639	0.115428	0.795316	0.000000
	183.878842	12.410000	41.030000	4.800000	12.268488	58.745541	0.114911	0.744294	0.000000
	183.975578	12.410000	41.030000	2.500000	12.267285	58.663144	0.118738	0.766215	0.000000
	184.074725	12.410000	41.040000	1.400000	12.265209	58.203845	0.109675	0.756487	0.000000
	184.174780	12.410000	41.040000	0.800000	12.259211	57.992112	0.112044	0.757729	0.000000
	184.277084	12.410000	41.050000	0.500000	12.258541	57.770016	0.113329	0.760630	0.000000
	184.379297	12.410000	41.060000	0.300000	12.265292	57.648343	0.113791	0.753888	0.000000
	184.478309	12.420000	41.060000	-0.800000	12.263868	57.251289	0.109922	0.748856	0.000000
	184.575119	12.420000	41.070000	-1.600000	12.262206	57.240858	0.105805	0.752060	0.000000
	184.675840	12.420000	41.070000	-2.000000	12.254784	56.994570	0.105874	0.755833	0.000000
	184.780790	12.420000	41.080000	-2.300000	12.254811	57.029049	0.105985	0.766064	0.000000
	184.874549	12.420000	41.090000	-2.300000	12.248914	56.848059	0.104932	0.756404	0.000000
	184.978327	12.420000	41.100000	-2.400000	12.259964	56.798830	0.108419	0.746810	0.000000
	185.075836	12.420000	41.100000	-2.400000	12.265760	56.786764	0.108406	0.742818	0.000000
	185.179744	12.420000	41.110000	-2.500000	12.254655	56.597043	0.110065	0.745183	0.000000
	185.274493	12.420000	41.120000	-2.500000	12.252616	56.470332	0.106929	0.757427	0.000000
	185.379738	12.420000	41.130000	-2.500000	12.265375	56.355977	0.107018	0.750399	0.000000
	185.473970	12.410000	41.140000	-1.500000	12.265852	56.436810	0.104579	0.758768	0.000000
	185.580268	12.410000	41.150000	-0.700000	12.266798	56.597043	0.105873	0.747799	0.000000
	185.675091	12.410000	41.160000	-0.400000	12.264667	56.446196	0.107440	0.746474	0.000000
	185.774222	12.410000	41.170000	-0.200000	12.265613	56.578942	0.105391	0.734801	0.000000
	185.876031	12.410000	41.180000	-0.100000	12.265650	56.697603	0.105630	0.739480	0.000000
	185.973770	12.410000	41.190000	-0.100000	12.266881	56.582294	0.104965	0.751221	0.000000
	186.076037	12.410000	41.200000	-0.100000	12.269288	56.517263	0.101180	0.751858	0.000000
	186.173978	12.410000	41.210000	-0.100000	12.265613	56.513911	0.103590	0.757611	0.000000
	186.279388	12.400000	41.220000	-0.100000	12.262803	56.609111	0.103422	0.761754	0.000000
	186.378020	12.410000	41.230000	-0.100000	12.263896	56.582294	0.101765	0.745418	0.000000
	186.476479	12.410000	41.240000	0.000000	12.253718	56.736486	0.101560	0.752378	0.000000
	186.575214	12.410000	41.250000	0.000000	12.265779	56.741849	0.103001	0.747581	0.000000
	186.679175	12.410000	41.260000	0.000000	12.265531	56.772308	0.104988	0.747799	0.000000
	186.774914	12.410000	41.270000	0.000000	12.265375	56.803523	0.104773	0.750869	0.000000
	186.879139	12.410000	41.280000	0.000000	12.252249	56.840393	0.104192	0.743841	0.000000
	186.978824	12.410000	41.290000	0.000000	12.259781	57.008646	0.106766	0.740319	0.000000
	187.079377	12.410000	41.300000	0.000000	12.256584	56.961724	0.106087	0.747967	0.000000
	187.176116	12.410000	41.310000	0.000000	12.266798	56.973790	0.105178	0.741812	0.000000
	187.279936	12.410000	41.330000	0.000000	12.262646	56.884636	0.104666	0.746793	0.000000
	187.373682	12.410000	41.330000	0.000000	12.266238	56.994570	0.105450	0.736428	0.000000
	187.473958	12.410000	41.340000	0.000000	12.267046	57.042832	0.104505	0.748051	0.000000
	187.578325	12.410000	41.350000	0.000000	12.266725	57.173538	0.102777	0.748068	0.000000
	187.678380	12.410000	41.370000	0.000000	12.265687	57.159170	0.105431	0.749477	0.000000
	187.774247	12.410000	41.380000	0.000000	12.259652	57.240565	0.104214	0.744780	0.000000
	187.873982	12.410000	41.380000	0.000000	12.250393	57.408794	0.104403	0.742818	0.000000
	187.978250	12.410000	41.390000	0.000000	12.262729	57.333059	0.104293	0.748822	0.000000
	188.073989	12.410000	41.400000	0.000000	12.264879	57.552217	0.105204	0.737518	0.000000
	188.178272	12.410000	41.420000	0.000000	12.259808	57.612532	0.107543	0.745183	0.000000
	188.277141	12.410000	41.430000	0.000000	12.267607	57.524739	0.108007	0.751372	0.000000
	188.378416	12.410000	41.440000	0.000000	12.268406	57.607171	0.108057	0.750500	0.000000
	188.475117	12.410000	41.450000	0.000000	12.265522	57.632637	0.109748	0.734398	0.000000
	188.579067	12.410000	41.460000	0.000000	12.265016	57.529138	0.110622	0.754542	0.000000
	188.674852	12.410000	41.470000	0.000000	12.254628	57.934862	0.110600	0.734784	0.000000
	188.779561	12.410000	41.480000	0.000000	12.261508	57.791838	0.108847	0.742617	0.000000
	188.875138	12.410000	41.490000	0.000000	12.263997	57.813281	0.105501	0.744009	0.000000
	188.978796	12.410000	41.500000	0.000000	12.267202	58.000907	0.105849	0.746424	0.000000
	189.074535	12.410000	41.510000	0.000000	12.265283	58.019962	0.108339	0.749359	0.000000
	189.173270	12.410000	41.520000	0.000000	12.255767	58.084287	0.104833	0.746676	0.000000
	189.274338	12.410000	41.530000	0.000000	12.246701	58.055852	0.106704	0.734650	0.000000
	189.373707	12.410000	41.540000	0.000000	12.263629	58.105058	0.105086	0.757225	0.000000
	189.479682	12.410000	41.550000	0.000000	12.267202	58.231400	0.102577	0.748671	0.000000
	189.575068	12.410000	41.560000	0.000000	12.265926	58.298401	0.101963	0.742617	0.000000
	189.674617	12.410000	41.570000	0.000000	12.266559	58.280981	0.100969	0.748252	0.000000
	189.774350	12.410000	41.580000	0.000000	12.258825	58.365399	0.100555	0.744344	0.000000
	189.879035	12.410000	41.600000	0.000000	12.253801	58.380138	0.101260	0.743506	0.000000
	189.974446	12.410000	41.600000	0.000000	12.266798	58.337260	0.100837	0.748537	0.000000
	190.079043	12.410000	41.610000	0.000000	12.262040	58.602560	0.100304	0.740872	0.000000
	190.178208	12.410000	41.620000	0.000000	12.265172	58.421299	0.101845	0.743254	0.000000
	190.275543	12.410000	41.640000	0.000000	12.265852	58.605910	0.101249	0.737434	0.000000
	190.374279	12.410000	41.640000	0.000000	12.257751	58.622657	0.101181	0.739396	0.000000
	190.479247	12.410000	41.650000	0.000000	12.249383	58.711754	0.099435	0.737115	0.000000
	190.576087	12.410000	41.660000	0.000000	12.265044	58.815877	0.100208	0.738306	0.000000
	190.679422	12.410000	41.670000	0.000000	12.257787	58.860465	0.099467	0.739161	0.000000
	190.774634	12.410000	41.680000	0.000000	12.263299	58.674533	0.100970	0.725173	0.000000
	190.878632	12.410000	41.690000	0.000000	12.258761	58.914722	0.099075	0.725995	0.000000
	190.975472	12.410000	41.700000	0.000000	12.261067	59.019884	0.100215	0.730473	0.000000
	191.073209	12.400000	41.710000	0.000000	12.265283	59.061412	0.100258	0.734868	0.000000
	191.175016	12.400000	41.720000	0.000000	12.254618	59.030978	0.098505	0.723932	0.000000
	191.274383	12.410000	41.730000	0.000000	12.260763	59.202735	0.097435	0.729635	0.000000
	191.374071	12.410000	41.740000	0.000000	12.256134	59.195368	0.096780	0.725173	0.000000
	191.478027	12.410000	41.750000	0.000000	12.254857	59.217470	0.098188	0.739866	0.000000
	191.575708	12.410000	41.760000	0.000000	12.263280	59.407674	0.114061	0.715311	0.000000
